SpectraSuite Data File
++++++++++++++++++++++++++++++++++++
Date: Fri Feb 20 12:07:19 EST 2015
User: Administrator
Dark Spectrum Present: Yes
Reference Spectrum Present: No
Number of Sampled Component Spectra: 1
Spectrometers: SB2+H01071
Integration Time (usec): 5000000 (SB2+H01071)
Spectra Averaged: 1 (SB2+H01071)
Boxcar Smoothing: 3 (SB2+H01071)
Correct for Electrical Dark: No (SB2+H01071)
Strobe/Lamp Enabled: Yes (SB2+H01071)
Correct for Detector Non-linearity: No (SB2+H01071)
Correct for Stray Light: No (SB2+H01071)
Number of Pixels in Processed Spectrum: 2048
>>>>>Begin Processed Spectral Data<<<<<
191.06	20.34
191.43	20.34
191.81	20.34
192.19	-12.27
192.56	-11.30
192.94	-17.43
193.31	-31.96
193.69	-35.83
194.07	-35.51
194.44	-15.82
194.82	7.75
195.19	-4.84
195.57	-10.98
195.95	2.26
196.32	10.01
196.70	-9.68
197.07	-21.63
197.45	-39.39
197.83	-16.79
198.20	-14.85
198.58	-28.41
198.95	-29.70
199.33	-19.69
199.70	-28.41
200.08	-21.31
200.46	-25.83
200.83	-11.30
201.21	5.81
201.58	2.58
201.96	19.69
202.33	37.77
202.71	42.94
203.09	30.35
203.46	9.04
203.84	5.17
204.21	-4.20
204.59	-14.53
204.96	-20.02
205.34	-24.21
205.71	-14.20
206.09	4.52
206.46	6.46
206.84	19.37
207.21	21.63
207.59	35.19
207.96	36.80
208.34	29.05
208.71	21.95
209.09	11.62
209.46	1.94
209.84	18.72
210.21	8.39
210.59	12.59
210.96	20.34
211.34	17.11
211.71	31.64
212.09	30.67
212.46	18.72
212.84	23.57
213.21	2.91
213.59	-2.91
213.96	-3.23
214.34	-13.88
214.71	-8.07
215.08	-12.27
215.46	-19.05
215.83	3.87
216.21	3.87
216.58	3.87
216.96	9.68
217.33	14.85
217.70	7.43
218.08	-1.29
218.45	-16.79
218.83	-15.82
219.20	-13.88
219.58	-20.02
219.95	-35.19
220.32	-17.76
220.70	-10.98
221.07	-0.97
221.45	-11.30
221.82	-8.07
222.19	-5.49
222.57	-2.91
222.94	-13.24
223.32	-17.43
223.69	-28.09
224.06	-28.41
224.44	-42.29
224.81	-36.48
225.18	-37.45
225.56	-38.09
225.93	-29.05
226.31	-25.50
226.68	-16.14
227.05	-13.56
227.43	-19.05
227.80	-10.01
228.17	-12.59
228.55	-2.91
228.92	-5.17
229.29	-5.81
229.67	1.94
230.04	-3.23
230.41	7.10
230.79	2.26
231.16	-1.61
231.53	-4.84
231.91	-6.78
232.28	3.87
232.65	12.27
233.03	2.91
233.40	39.71
233.77	29.70
234.15	41.32
234.52	46.17
234.89	49.07
235.26	43.58
235.64	40.68
236.01	2.58
236.38	5.49
236.76	-1.94
237.13	-14.53
237.50	-13.24
237.87	-26.15
238.25	-24.21
238.62	-17.43
238.99	-10.01
239.36	-5.49
239.74	11.30
240.11	0.97
240.48	11.94
240.85	24.54
241.23	14.85
241.60	5.81
241.97	-4.20
242.34	-22.92
242.72	-20.02
243.09	-18.40
243.46	-42.94
243.83	-30.35
244.20	-32.28
244.58	-25.50
244.95	-10.01
245.32	-15.17
245.69	-3.87
246.07	8.07
246.44	-8.07
246.81	-1.94
247.18	-8.07
247.55	-3.23
247.92	5.17
248.30	-2.26
248.67	0.97
249.04	6.46
249.41	20.98
249.78	19.69
250.16	34.87
250.53	34.22
250.90	28.09
251.27	23.24
251.64	12.91
252.01	-2.26
252.39	-3.23
252.76	-27.12
253.13	-34.22
253.50	-49.72
253.87	-43.26
254.24	-23.57
254.61	-30.02
254.98	-23.24
255.36	-38.42
255.73	-44.87
256.10	-30.02
256.47	-36.48
256.84	-34.87
257.21	-33.90
257.58	-37.13
257.95	-28.41
258.33	-10.01
258.70	-8.39
259.07	-0.32
259.44	-1.61
259.81	5.17
260.18	4.52
260.55	15.50
260.92	7.10
261.29	17.11
261.66	13.24
262.03	15.17
262.40	2.58
262.77	26.80
263.15	19.69
263.52	3.23
263.89	-13.24
264.26	-29.38
264.63	-21.95
265.00	-23.57
265.37	-33.57
265.74	-28.09
266.11	-12.27
266.48	9.36
266.85	20.66
267.22	3.87
267.59	11.30
267.96	11.94
268.33	13.24
268.70	8.39
269.07	1.61
269.44	5.49
269.81	4.84
270.18	18.40
270.55	-1.94
270.92	-15.82
271.29	-2.91
271.66	-0.97
272.03	9.36
272.40	5.81
272.77	-14.85
273.14	-9.36
273.51	5.17
273.88	-14.20
274.25	-27.76
274.62	-29.38
274.99	-12.59
275.36	4.52
275.73	9.68
276.10	15.17
276.47	30.99
276.84	42.29
277.21	25.50
277.58	3.87
277.94	1.61
278.31	12.91
278.68	0.65
279.05	-20.98
279.42	-28.41
279.79	-28.41
280.16	-20.66
280.53	-20.66
280.90	-42.29
281.27	-45.84
281.64	-16.46
282.01	-6.13
282.37	8.72
282.74	9.68
283.11	7.10
283.48	10.01
283.85	20.34
284.22	9.04
284.59	-5.17
284.96	-10.33
285.33	-3.55
285.69	4.84
286.06	10.65
286.43	9.36
286.80	1.29
287.17	20.66
287.54	19.37
287.91	26.47
288.27	24.21
288.64	27.44
289.01	46.81
289.38	54.56
289.75	47.78
290.12	59.08
290.48	47.46
290.85	43.26
291.22	21.63
291.59	-0.65
291.96	2.58
292.33	-11.30
292.69	-30.02
293.06	-19.37
293.43	-10.65
293.80	3.23
294.17	6.13
294.53	-1.29
294.90	15.82
295.27	35.19
295.64	47.78
296.01	54.88
296.37	59.08
296.74	50.36
297.11	52.94
297.48	27.44
297.84	11.94
298.21	2.58
298.58	-21.95
298.95	-21.63
299.31	-17.43
299.68	-10.98
300.05	8.07
300.42	13.88
300.78	2.91
301.15	10.65
301.52	18.08
301.89	35.83
302.25	26.15
302.62	28.73
302.99	17.43
303.35	6.46
303.72	-1.29
304.09	-17.43
304.46	-24.54
304.82	-16.46
305.19	-10.98
305.56	0.32
305.92	14.20
306.29	40.03
306.66	61.02
307.02	42.61
307.39	34.54
307.76	36.80
308.12	48.10
308.49	33.90
308.86	9.68
309.23	4.84
309.59	22.92
309.96	22.92
310.32	22.60
310.69	-1.29
311.06	17.11
311.42	23.89
311.79	10.98
312.16	-4.52
312.52	2.58
312.89	-10.98
313.26	-5.81
313.62	-14.20
313.99	-32.28
314.35	-21.95
314.72	-12.59
315.09	-21.63
315.45	-15.82
315.82	-15.17
316.19	-13.24
316.55	-0.32
316.92	1.61
317.28	-2.58
317.65	5.17
318.02	-0.32
318.38	-1.29
318.75	-5.81
319.11	-3.23
319.48	-9.36
319.84	-5.49
320.21	-1.61
320.58	5.17
320.94	28.73
321.31	42.61
321.67	44.87
322.04	52.62
322.40	54.88
322.77	52.30
323.13	59.72
323.50	38.09
323.86	17.11
324.23	30.02
324.60	34.22
324.96	40.35
325.33	25.50
325.69	16.14
326.06	16.14
326.42	16.46
326.79	1.29
327.15	-11.62
327.52	-17.43
327.88	-8.72
328.25	-14.53
328.61	-3.87
328.98	-2.58
329.34	-10.98
329.71	-28.73
330.07	-37.45
330.44	-30.35
330.80	-20.98
331.16	-46.17
331.53	-36.80
331.89	-16.79
332.26	16.14
332.62	19.05
332.99	21.31
333.35	27.76
333.72	49.39
334.08	50.36
334.45	29.70
334.81	28.41
335.17	22.60
335.54	20.66
335.90	9.36
336.27	-5.81
336.63	2.91
337.00	18.40
337.36	7.10
337.72	11.62
338.09	-3.55
338.45	0.97
338.82	14.85
339.18	-4.20
339.54	-2.91
339.91	-5.17
340.27	2.26
340.63	13.56
341.00	10.98
341.36	28.09
341.73	45.52
342.09	54.88
342.45	67.15
342.82	59.72
343.18	58.43
343.54	76.19
343.91	60.37
344.27	53.27
344.63	37.77
345.00	34.87
345.36	40.03
345.72	49.39
346.09	20.34
346.45	29.70
346.81	28.09
347.18	32.61
347.54	28.41
347.90	18.40
348.27	-1.29
348.63	12.59
348.99	-1.94
349.36	-0.65
349.72	-8.72
350.08	-16.46
350.45	-23.57
350.81	-6.78
351.17	1.61
351.53	-2.91
351.90	3.55
352.26	8.72
352.62	23.24
352.98	38.09
353.35	37.13
353.71	24.21
354.07	40.68
354.44	23.89
354.80	31.96
355.16	17.76
355.52	17.76
355.88	9.04
356.25	-1.94
356.61	-28.73
356.97	-27.76
357.33	-38.74
357.70	-23.57
358.06	-21.31
358.42	-30.35
358.78	-49.07
359.15	-39.06
359.51	-24.86
359.87	-27.12
360.23	-32.93
360.59	-31.96
360.95	-20.98
361.32	7.75
361.68	14.53
362.04	-0.97
362.40	-5.49
362.76	-11.30
363.13	-12.91
363.49	-23.57
363.85	-15.50
364.21	-28.73
364.57	-14.53
364.93	-15.82
365.30	-15.17
365.66	-20.66
366.02	-18.40
366.38	-29.38
366.74	-7.75
367.10	-6.46
367.46	8.72
367.83	10.98
368.19	10.01
368.55	20.98
368.91	12.27
369.27	2.26
369.63	6.46
369.99	-11.94
370.35	-14.53
370.71	-5.81
371.08	-4.20
371.44	6.46
371.80	15.17
372.16	13.88
372.52	22.60
372.88	22.92
373.24	14.85
373.60	18.72
373.96	20.34
374.32	28.09
374.68	23.57
375.04	23.24
375.40	29.38
375.76	35.83
376.13	33.57
376.49	32.28
376.85	10.98
377.21	14.20
377.57	5.49
377.93	-0.97
378.29	-5.81
378.65	-4.20
379.01	-6.78
379.37	-4.20
379.73	-22.28
380.09	-7.10
380.45	-18.72
380.81	-30.99
381.17	-40.68
381.53	-20.98
381.89	-10.01
382.25	-4.20
382.61	-7.10
382.97	-2.26
383.33	-2.26
383.69	0.00
384.05	-1.29
384.41	6.78
384.77	27.44
385.13	36.16
385.49	39.71
385.85	59.40
386.20	68.76
386.56	44.87
386.92	26.15
387.28	3.23
387.64	-1.29
388.00	-22.60
388.36	-22.60
388.72	-4.84
389.08	-10.98
389.44	-18.08
389.80	-14.53
390.16	-6.46
390.52	25.83
390.88	12.91
391.23	-23.57
391.59	-10.01
391.95	-1.94
392.31	3.55
392.67	-36.16
393.03	-34.54
393.39	-35.83
393.75	-27.44
394.11	-29.38
394.46	-25.83
394.82	-7.75
395.18	21.31
395.54	19.37
395.90	15.82
396.26	18.08
396.62	12.59
396.97	10.65
397.33	-16.14
397.69	-22.28
398.05	-38.09
398.41	-26.15
398.77	-44.87
399.12	-41.65
399.48	-36.80
399.84	-35.51
400.20	-32.93
400.56	-11.30
400.91	-27.44
401.27	-27.76
401.63	-16.14
401.99	-17.43
402.35	-8.39
402.70	-20.02
403.06	-29.05
403.42	-13.24
403.78	6.46
404.14	-0.97
404.49	-0.97
404.85	5.17
405.21	19.37
405.57	15.82
405.92	23.89
406.28	23.57
406.64	13.56
407.00	7.10
407.35	-0.65
407.71	6.78
408.07	10.98
408.43	4.52
408.78	8.07
409.14	26.15
409.50	30.67
409.85	37.13
410.21	27.12
410.57	20.34
410.93	20.98
411.28	13.88
411.64	14.20
412.00	18.72
412.35	20.98
412.71	26.15
413.07	19.37
413.42	15.82
413.78	15.17
414.14	7.43
414.49	-5.49
414.85	7.43
415.21	4.20
415.56	18.72
415.92	34.22
416.28	51.65
416.63	55.53
416.99	65.21
417.35	39.39
417.70	28.09
418.06	11.62
418.42	12.59
418.77	13.88
419.13	17.43
419.48	18.40
419.84	17.11
420.20	25.50
420.55	37.13
420.91	19.37
421.27	20.02
421.62	17.43
421.98	20.66
422.33	24.21
422.69	40.03
423.05	33.90
423.40	30.67
423.76	26.80
424.11	20.98
424.47	14.53
424.82	28.73
425.18	7.43
425.54	25.50
425.89	17.43
426.25	18.40
426.60	5.17
426.96	1.94
427.31	-5.49
427.67	-2.26
428.02	-15.50
428.38	-10.98
428.73	-32.61
429.09	-27.44
429.44	-21.63
429.80	-22.92
430.15	-11.30
430.51	-1.94
430.86	11.94
431.22	16.79
431.57	16.79
431.93	17.11
432.28	11.30
432.64	-4.52
432.99	-9.36
433.35	-6.13
433.70	-10.01
434.06	-0.32
434.41	-6.46
434.77	-1.94
435.12	26.47
435.48	5.17
435.83	-5.49
436.19	8.07
436.54	3.87
436.89	0.32
437.25	1.94
437.60	-25.50
437.96	-10.01
438.31	7.10
438.67	3.87
439.02	11.62
439.37	-4.84
439.73	-18.08
440.08	-2.91
440.44	-2.58
440.79	-10.01
441.15	-16.46
441.50	-12.27
441.85	5.81
442.21	25.83
442.56	18.08
442.91	20.02
443.27	14.85
443.62	14.85
443.98	20.34
444.33	19.05
444.68	7.43
445.04	0.00
445.39	7.10
445.74	3.23
446.10	5.81
446.45	-16.14
446.80	10.33
447.16	9.36
447.51	14.85
447.86	5.81
448.22	13.56
448.57	8.07
448.92	22.92
449.28	0.97
449.63	-12.91
449.98	-10.01
450.34	-6.46
450.69	-18.40
451.04	-4.52
451.40	-11.30
451.75	-6.78
452.10	18.72
452.45	24.21
452.81	32.61
453.16	35.83
453.51	37.13
453.86	47.13
454.22	30.02
454.57	3.55
454.92	-6.13
455.27	-16.46
455.63	-15.82
455.98	-32.61
456.33	-46.81
456.68	-38.09
457.04	-15.82
457.39	-6.46
457.74	-2.58
458.09	-17.43
458.45	-10.01
458.80	-12.27
459.15	-6.46
459.50	-20.98
459.85	-31.64
460.21	-29.05
460.56	-16.79
460.91	-5.49
461.26	-1.94
461.61	-16.46
461.97	0.97
462.32	13.88
462.67	-1.94
463.02	21.63
463.37	20.34
463.72	17.76
464.08	18.72
464.43	2.58
464.78	-2.26
465.13	9.68
465.48	-0.65
465.83	-8.72
466.18	-12.91
466.54	-8.07
466.89	-6.13
467.24	-4.52
467.59	-10.65
467.94	-14.85
468.29	-17.11
468.64	-3.87
468.99	-0.97
469.34	-7.43
469.70	-20.98
470.05	-25.50
470.40	-37.45
470.75	-36.80
471.10	-38.74
471.45	-41.65
471.80	-40.35
472.15	-32.61
472.50	-40.35
472.85	-30.67
473.20	-30.67
473.55	-31.64
473.90	-31.96
474.25	-14.85
474.61	-1.61
474.96	16.79
475.31	17.11
475.66	12.27
476.01	17.76
476.36	37.13
476.71	36.80
477.06	26.47
477.41	30.35
477.76	20.66
478.11	38.09
478.46	36.48
478.81	30.67
479.16	20.98
479.51	23.57
479.86	18.72
480.21	42.29
480.56	34.87
480.91	40.68
481.26	39.39
481.61	47.46
481.96	50.68
482.31	43.91
482.66	19.69
483.00	18.72
483.35	9.04
483.70	2.91
484.05	1.29
484.40	1.94
484.75	5.81
485.10	19.05
485.45	7.10
485.80	8.07
486.15	24.54
486.50	9.04
486.85	-4.20
487.20	-4.52
487.55	-8.39
487.89	-15.17
488.24	-20.66
488.59	-20.34
488.94	-12.27
489.29	-4.20
489.64	5.17
489.99	-1.29
490.34	26.80
490.68	35.19
491.03	16.14
491.38	39.06
491.73	29.70
492.08	20.34
492.43	20.02
492.78	1.29
493.12	-13.88
493.47	-14.20
493.82	-32.28
494.17	-21.95
494.52	-20.98
494.87	-25.18
495.21	-28.73
495.56	-5.81
495.91	5.81
496.26	10.65
496.61	15.50
496.95	6.78
497.30	15.82
497.65	18.40
498.00	-1.94
498.35	-5.17
498.69	-11.30
499.04	-22.60
499.39	-22.28
499.74	-15.82
500.08	-17.43
500.43	-5.49
500.78	-15.82
501.13	-29.70
501.48	-21.63
501.82	0.65
502.17	-6.78
502.52	10.65
502.86	0.32
503.21	8.72
503.56	13.56
503.91	1.94
504.25	-4.52
504.60	2.91
504.95	-11.62
505.30	-0.97
505.64	3.55
505.99	9.68
506.34	27.76
506.68	19.37
507.03	10.33
507.38	27.12
507.72	26.80
508.07	20.34
508.42	22.60
508.76	-0.65
509.11	13.24
509.46	32.28
509.80	18.72
510.15	25.18
510.50	28.09
510.84	42.61
511.19	49.39
511.54	46.81
511.88	26.80
512.23	45.20
512.57	36.80
512.92	30.99
513.27	6.78
513.61	25.18
513.96	12.91
514.31	27.12
514.65	3.23
515.00	-9.04
515.34	-7.75
515.69	-5.81
516.03	-19.37
516.38	-18.40
516.73	-38.74
517.07	-41.32
517.42	-27.76
517.76	-27.76
518.11	-35.51
518.45	-39.39
518.80	-42.29
519.15	-28.73
519.49	-18.08
519.84	-19.05
520.18	-23.57
520.53	-20.66
520.87	-3.23
521.22	-5.81
521.56	-13.88
521.91	-11.30
522.25	-14.20
522.60	-6.13
522.94	22.92
523.29	3.87
523.63	5.81
523.98	12.59
524.32	23.24
524.67	23.24
525.01	22.60
525.36	10.33
525.70	22.28
526.05	26.15
526.39	17.76
526.74	5.49
527.08	6.13
527.43	-4.20
527.77	1.61
528.12	-3.55
528.46	10.65
528.80	11.62
529.15	8.72
529.49	9.68
529.84	17.76
530.18	7.75
530.53	-7.43
530.87	-13.24
531.21	-3.23
531.56	-0.97
531.90	-7.75
532.25	-9.68
532.59	-0.97
532.93	17.11
533.28	13.56
533.62	17.76
533.97	15.82
534.31	16.79
534.65	16.14
535.00	30.99
535.34	30.67
535.68	41.32
536.03	23.89
536.37	32.28
536.71	47.46
537.06	57.79
537.40	24.21
537.74	20.34
538.09	-2.91
538.43	-12.59
538.77	-28.09
539.12	-28.73
539.46	-30.99
539.80	-37.77
540.15	-46.17
540.49	-23.89
540.83	0.32
541.18	61.34
541.52	51.01
541.86	64.24
542.20	83.29
542.55	91.04
542.89	90.72
543.23	84.26
543.58	40.03
543.92	38.42
544.26	24.86
544.60	24.54
544.95	44.23
545.29	30.02
545.63	33.90
545.97	21.31
546.32	11.62
546.66	17.11
547.00	28.09
547.34	-0.32
547.68	10.65
548.03	11.62
548.37	13.56
548.71	41.97
549.05	38.74
549.39	36.80
549.74	39.39
550.08	18.72
550.42	11.94
550.76	13.56
551.10	-21.95
551.45	-37.45
551.79	-29.05
552.13	-29.38
552.47	-19.05
552.81	-19.05
553.15	-9.04
553.50	11.94
553.84	23.24
554.18	10.98
554.52	29.38
554.86	42.61
555.20	56.17
555.54	52.30
555.88	34.22
556.23	28.09
556.57	33.90
556.91	2.91
557.25	0.32
557.59	-11.30
557.93	-11.30
558.27	6.46
558.61	10.01
558.95	-3.55
559.29	28.41
559.64	10.98
559.98	-3.87
560.32	2.26
560.66	-7.43
561.00	-2.26
561.34	-12.91
561.68	-15.82
562.02	-16.79
562.36	7.75
562.70	-3.87
563.04	2.58
563.38	-7.43
563.72	2.26
564.06	1.61
564.40	18.08
564.74	9.04
565.08	10.65
565.42	7.43
565.76	16.79
566.10	26.80
566.44	23.89
566.78	21.95
567.12	27.12
567.46	24.54
567.80	37.13
568.14	31.96
568.48	40.35
568.82	42.61
569.16	13.56
569.50	12.27
569.84	4.20
570.18	17.11
570.52	29.38
570.86	16.14
571.20	7.43
571.54	29.05
571.88	21.95
572.22	34.22
572.55	4.52
572.89	-6.46
573.23	1.61
573.57	-8.72
573.91	0.97
574.25	-1.29
574.59	-10.98
574.93	-1.94
575.27	-5.49
575.61	-29.38
575.94	-15.17
576.28	-25.50
576.62	-14.20
576.96	-4.20
577.30	-8.39
577.64	5.81
577.98	13.56
578.32	28.09
578.65	24.21
578.99	26.15
579.33	25.50
579.67	26.47
580.01	20.66
580.35	29.70
580.68	11.30
581.02	25.18
581.36	9.04
581.70	-1.94
582.04	-2.91
582.37	-11.62
582.71	-13.88
583.05	1.29
583.39	-7.10
583.73	-7.43
584.06	-5.49
584.40	-3.87
584.74	9.04
585.08	7.10
585.41	-0.65
585.75	4.52
586.09	12.91
586.43	6.46
586.76	2.26
587.10	-7.43
587.44	-12.27
587.78	-21.63
588.11	-33.57
588.45	-39.06
588.79	-42.94
589.13	-38.74
589.46	-42.29
589.80	-31.64
590.14	-30.67
590.47	-32.28
590.81	-32.61
591.15	-23.89
591.48	-30.02
591.82	-21.31
592.16	-40.35
592.50	-40.68
592.83	-30.99
593.17	-25.83
593.51	-23.57
593.84	-14.85
594.18	-25.83
594.51	-3.55
594.85	0.97
595.19	4.20
595.52	18.40
595.86	22.60
596.20	26.80
596.53	44.23
596.87	39.06
597.21	32.28
597.54	28.73
597.88	10.98
598.21	18.08
598.55	26.15
598.89	10.98
599.22	4.52
599.56	11.62
599.89	14.53
600.23	33.57
600.57	20.66
600.90	10.01
601.24	20.66
601.57	26.80
601.91	13.24
602.24	10.33
602.58	7.10
602.91	10.98
603.25	11.94
603.58	6.13
603.92	-1.94
604.26	15.17
604.59	2.58
604.93	-3.23
605.26	1.94
605.60	5.49
605.93	-10.01
606.27	-4.84
606.60	1.29
606.94	23.24
607.27	16.46
607.61	22.28
607.94	12.91
608.28	24.54
608.61	28.09
608.95	17.76
609.28	19.69
609.61	18.72
609.95	26.47
610.28	38.74
610.62	35.83
610.95	42.94
611.29	37.13
611.62	16.46
611.96	17.76
612.29	9.68
612.62	0.65
612.96	-3.87
613.29	-11.62
613.63	-13.56
613.96	-10.33
614.29	-3.55
614.63	-10.65
614.96	-14.20
615.30	-1.61
615.63	9.36
615.96	12.91
616.30	16.79
616.63	11.94
616.97	24.86
617.30	30.67
617.63	38.09
617.97	31.31
618.30	25.18
618.63	23.57
618.97	12.27
619.30	-1.29
619.63	-6.13
619.97	-16.79
620.30	-24.86
620.63	-28.73
620.97	-16.79
621.30	4.20
621.63	0.00
621.97	11.30
622.30	34.87
622.63	43.58
622.96	57.46
623.30	46.17
623.63	39.39
623.96	41.97
624.30	40.68
624.63	20.66
624.96	10.01
625.29	-0.32
625.63	6.46
625.96	5.49
626.29	9.04
626.62	0.65
626.96	-7.43
627.29	-4.20
627.62	7.75
627.95	0.65
628.28	12.27
628.62	18.40
628.95	0.65
629.28	7.10
629.61	13.88
629.95	24.54
630.28	23.24
630.61	17.43
630.94	20.02
631.27	26.15
631.60	25.18
631.94	19.69
632.27	10.33
632.60	21.63
632.93	10.65
633.26	4.84
633.59	25.50
633.93	34.54
634.26	31.64
634.59	31.64
634.92	25.50
635.25	30.35
635.58	12.91
635.91	5.49
636.24	-11.30
636.58	6.13
636.91	5.17
637.24	1.61
637.57	4.52
637.90	7.10
638.23	4.20
638.56	18.40
638.89	4.52
639.22	-10.01
639.55	-16.14
639.88	-14.85
640.22	-14.85
640.55	-14.85
640.88	-19.05
641.21	-31.31
641.54	-20.66
641.87	-3.23
642.20	-1.61
642.53	-4.52
642.86	-1.61
643.19	7.43
643.52	12.59
643.85	0.65
644.18	-5.81
644.51	-18.40
644.84	-0.65
645.17	-7.43
645.50	-28.41
645.83	-19.69
646.16	1.94
646.49	-2.91
646.82	4.84
647.15	-10.65
647.48	2.91
647.81	8.72
648.14	6.78
648.47	3.55
648.80	8.39
649.13	12.91
649.46	23.57
649.79	20.02
650.11	26.47
650.44	32.28
650.77	10.33
651.10	2.58
651.43	-1.94
651.76	-12.91
652.09	-31.96
652.42	-34.54
652.75	-42.61
653.08	-27.76
653.41	-41.00
653.73	-36.16
654.06	-23.57
654.39	-4.84
654.72	-5.17
655.05	-14.85
655.38	-11.62
655.71	11.94
656.04	4.52
656.36	11.94
656.69	-3.23
657.02	2.91
657.35	-7.10
657.68	-23.24
658.01	-34.22
658.33	-25.18
658.66	-35.51
658.99	-36.48
659.32	-40.68
659.65	-22.92
659.97	-29.38
660.30	-44.55
660.63	-50.04
660.96	-44.87
661.29	-24.86
661.61	-33.25
661.94	-32.93
662.27	-10.01
662.60	3.87
662.92	-5.49
663.25	-12.59
663.58	-14.53
663.91	-8.39
664.23	-3.55
664.56	-0.32
664.89	2.58
665.22	-0.00
665.54	24.86
665.87	24.21
666.20	18.40
666.53	-11.94
666.85	-23.89
667.18	-29.70
667.51	-20.34
667.83	-48.42
668.16	-54.24
668.49	-45.20
668.81	-26.80
669.14	-16.79
669.47	1.29
669.79	3.55
670.12	-3.23
670.45	-5.17
670.77	-3.55
671.10	10.33
671.43	1.61
671.75	-5.81
672.08	-13.24
672.41	-23.24
672.73	-21.95
673.06	-31.96
673.39	-36.80
673.71	-33.90
674.04	-38.74
674.36	-41.65
674.69	-12.91
675.02	-12.59
675.34	-9.04
675.67	-2.26
675.99	-5.81
676.32	10.98
676.64	18.08
676.97	12.91
677.30	27.44
677.62	36.80
677.95	26.15
678.27	24.21
678.60	8.72
678.92	13.56
679.25	11.30
679.57	-13.88
679.90	-32.93
680.22	-19.37
680.55	-4.20
680.88	-12.27
681.20	-18.40
681.53	-18.72
681.85	-10.33
682.18	-2.26
682.50	-18.72
682.83	-19.05
683.15	-3.23
683.47	-18.08
683.80	-25.50
684.12	-26.80
684.45	-19.05
684.77	-5.17
685.10	-21.63
685.42	-25.18
685.75	-9.68
686.07	-7.43
686.40	8.72
686.72	10.33
687.04	4.84
687.37	9.36
687.69	23.89
688.02	20.98
688.34	36.16
688.67	14.85
688.99	-0.32
689.31	2.58
689.64	20.34
689.96	6.78
690.28	10.98
690.61	19.37
690.93	34.22
691.26	48.42
691.58	50.36
691.90	27.44
692.23	16.79
692.55	9.36
692.87	-4.52
693.20	-6.78
693.52	-10.33
693.84	-24.54
694.17	-11.62
694.49	-3.23
694.81	4.52
695.14	-3.23
695.46	-11.30
695.78	-10.01
696.11	-9.68
696.43	-18.08
696.75	-27.76
697.08	-40.03
697.40	-39.39
697.72	-27.44
698.04	-21.63
698.37	-3.55
698.69	1.94
699.01	-1.29
699.33	21.63
699.66	28.41
699.98	16.79
700.30	-1.29
700.62	-8.72
700.95	-11.94
701.27	4.52
701.59	-5.17
701.91	-11.94
702.24	-22.60
702.56	-15.82
702.88	-15.17
703.20	-0.00
703.52	3.23
703.85	-2.91
704.17	14.20
704.49	31.31
704.81	25.50
705.13	31.64
705.45	25.18
705.78	7.10
706.10	2.26
706.42	-28.41
706.74	-24.86
707.06	-16.79
707.38	-18.72
707.71	-20.02
708.03	-14.53
708.35	-2.26
708.67	15.50
708.99	-7.10
709.31	-8.07
709.63	-14.53
709.95	-14.20
710.27	-6.78
710.60	-4.84
710.92	-13.24
711.24	-7.75
711.56	-21.63
711.88	-33.90
712.20	-50.04
712.52	-63.60
712.84	-70.05
713.16	-67.15
713.48	-58.76
713.80	-43.91
714.12	-41.00
714.44	-34.54
714.76	-20.98
715.08	-28.41
715.40	-25.50
715.72	-27.44
716.04	-45.84
716.36	-32.28
716.68	-27.76
717.00	-20.34
717.32	-5.49
717.64	-1.29
717.96	-0.00
718.28	22.28
718.60	10.33
718.92	16.14
719.24	3.87
719.56	4.20
719.88	-11.62
720.20	-18.08
720.52	-19.37
720.84	-18.40
721.16	-10.01
721.48	-0.32
721.80	-3.23
722.12	10.33
722.44	13.56
722.76	12.59
723.08	10.98
723.40	-14.85
723.72	-33.25
724.03	-24.21
724.35	-10.98
724.67	-2.26
724.99	2.91
725.31	-3.87
725.63	5.49
725.95	-2.58
726.27	-32.93
726.58	-47.46
726.90	-44.23
727.22	-42.94
727.54	-37.77
727.86	-47.46
728.18	-16.79
728.50	-0.00
728.81	10.65
729.13	10.98
729.45	-4.84
729.77	0.00
730.09	24.54
730.40	-2.26
730.72	-3.55
731.04	-31.64
731.36	-16.46
731.68	4.20
731.99	-2.91
732.31	-19.05
732.63	-12.91
732.95	-9.04
733.27	9.68
733.58	-4.52
733.90	-13.56
734.22	-19.37
734.54	-2.91
734.85	3.87
735.17	10.98
735.49	0.65
735.80	-1.94
736.12	-7.75
736.44	1.94
736.76	-8.72
737.07	0.65
737.39	-2.58
737.71	7.75
738.02	19.69
738.34	17.76
738.66	21.63
738.97	12.59
739.29	10.65
739.61	5.17
739.93	2.58
740.24	-15.50
740.56	-15.50
740.87	-10.33
741.19	4.20
741.51	-5.17
741.82	-6.78
742.14	7.10
742.46	1.94
742.77	2.91
743.09	16.46
743.41	10.01
743.72	10.01
744.04	7.75
744.35	11.94
744.67	20.34
744.99	20.66
745.30	-24.21
745.62	-10.01
745.93	-10.98
746.25	-17.11
746.56	-30.67
746.88	-31.64
747.20	-23.24
747.51	3.55
747.83	-3.87
748.14	0.97
748.46	14.53
748.77	9.04
749.09	14.53
749.40	20.02
749.72	20.66
750.03	11.94
750.35	14.20
750.66	4.20
750.98	15.17
751.29	18.40
751.61	14.20
751.92	24.86
752.24	27.44
752.55	27.44
752.87	22.92
753.18	-3.23
753.50	-5.49
753.81	2.91
754.13	0.00
754.44	-6.78
754.76	-14.53
755.07	0.00
755.38	7.75
755.70	-11.62
756.01	-34.54
756.33	-45.52
756.64	-41.32
756.95	-29.70
757.27	-34.22
757.58	-15.82
757.90	5.17
758.21	18.08
758.52	32.61
758.84	16.46
759.15	10.33
759.47	17.11
759.78	14.85
760.09	5.49
760.41	-0.32
760.72	-10.98
761.03	4.20
761.35	-16.79
761.66	-38.42
761.97	-33.57
762.29	-39.39
762.60	-28.09
762.91	-27.44
763.23	-20.34
763.54	11.30
763.85	47.78
764.17	42.29
764.48	54.56
764.79	35.83
765.10	40.03
765.42	38.74
765.73	26.47
766.04	-0.65
766.36	-2.91
766.67	-15.17
766.98	-6.78
767.29	-23.57
767.61	-24.54
767.92	-33.57
768.23	-41.65
768.54	-47.78
768.86	-35.83
769.17	-24.86
769.48	-0.97
769.79	3.55
770.10	15.17
770.42	19.05
770.73	22.60
771.04	18.08
771.35	2.26
771.66	-13.24
771.98	-19.05
772.29	-26.80
772.60	-22.60
772.91	-16.14
773.22	-12.59
773.53	-5.49
773.85	3.23
774.16	-4.20
774.47	7.10
774.78	18.08
775.09	21.63
775.40	11.62
775.71	12.59
776.02	18.40
776.34	30.99
776.65	40.03
776.96	38.42
777.27	32.61
777.58	47.46
777.89	50.04
778.20	43.91
778.51	30.67
778.82	17.76
779.13	13.88
779.44	29.38
779.75	27.12
780.06	16.14
780.38	9.04
780.69	13.56
781.00	12.27
781.31	32.61
781.62	10.01
781.93	0.65
782.24	7.75
782.55	10.01
782.86	24.21
783.17	37.13
783.48	5.49
783.79	10.01
784.10	17.11
784.41	15.50
784.72	9.68
785.03	-6.46
785.34	-23.89
785.65	-13.88
785.96	-7.10
786.27	-10.33
786.57	-13.24
786.88	-2.91
787.19	-13.56
787.50	-0.65
787.81	-10.01
788.12	-11.94
788.43	-1.61
788.74	9.04
789.05	-7.75
789.36	15.82
789.67	10.98
789.98	28.09
790.29	11.94
790.59	1.29
790.90	-11.62
791.21	9.68
791.52	6.78
791.83	-4.20
792.14	-0.97
792.45	17.76
792.75	36.80
793.06	30.67
793.37	29.70
793.68	14.85
793.99	19.69
794.30	23.57
794.60	32.28
794.91	14.20
795.22	34.54
795.53	25.18
795.84	34.87
796.15	42.61
796.45	34.22
796.76	27.76
797.07	21.63
797.38	-8.39
797.68	-19.37
797.99	-11.30
798.30	-4.20
798.61	-19.37
798.91	-33.57
799.22	-33.25
799.53	-14.85
799.84	-0.00
800.14	-9.68
800.45	-5.49
800.76	12.27
801.07	25.50
801.37	28.09
801.68	17.43
801.99	15.50
802.29	23.89
802.60	-3.87
802.91	-2.91
803.22	-28.73
803.52	-20.02
803.83	-11.30
804.14	-16.46
804.44	-23.89
804.75	-2.26
805.06	-19.37
805.36	-18.40
805.67	-36.48
805.97	-34.87
806.28	-30.67
806.59	-8.07
806.89	-27.12
807.20	-34.22
807.51	-13.56
807.81	-1.29
808.12	1.94
808.42	1.61
808.73	-25.50
809.04	-13.56
809.34	1.94
809.65	-1.61
809.95	-4.52
810.26	-1.94
810.56	-8.39
810.87	-0.00
811.18	6.46
811.48	1.29
811.79	-2.26
812.09	11.94
812.40	15.17
812.70	12.91
813.01	6.78
813.31	-8.07
813.62	-6.46
813.92	6.13
814.23	-17.11
814.53	-31.31
814.84	-15.50
815.14	-22.92
815.45	-21.63
815.75	-19.69
816.06	-13.24
816.36	-3.23
816.67	0.97
816.97	-9.68
817.28	3.55
817.58	10.01
817.89	1.61
818.19	-19.37
818.49	-22.60
818.80	-24.54
819.10	-22.28
819.41	-30.99
819.71	-29.38
820.01	-20.02
820.32	-21.95
820.62	-34.22
820.93	-27.76
821.23	-12.91
821.53	-4.84
821.84	-16.14
822.14	-17.43
822.45	-26.47
822.75	-11.62
823.05	-14.20
823.36	-13.56
823.66	-13.88
823.96	-15.50
824.27	-14.20
824.57	-1.94
824.87	-7.10
825.18	1.29
825.48	-11.94
825.78	-1.94
826.09	8.39
826.39	12.91
826.69	19.37
827.00	19.05
827.30	34.87
827.60	32.61
827.90	23.89
828.21	24.21
828.51	24.21
828.81	-0.00
829.11	13.88
829.42	-10.33
829.72	-10.01
830.02	-12.27
830.32	-3.87
830.63	-0.32
830.93	22.60
831.23	17.11
831.53	23.57
831.84	26.47
832.14	36.16
832.44	27.76
832.74	21.63
833.04	18.40
833.35	20.34
833.65	27.44
833.95	20.66
834.25	14.53
834.55	19.05
834.85	27.76
835.16	40.35
835.46	40.35
835.76	36.48
836.06	39.39
836.36	36.16
836.66	31.64
836.96	11.62
837.26	-2.58
837.57	5.81
837.87	-18.08
838.17	-24.86
838.47	-23.24
838.77	-21.31
839.07	-24.54
839.37	-22.28
839.67	-29.05
839.97	-29.70
840.27	-20.02
840.57	-31.64
840.88	-36.80
841.18	-24.54
841.48	-19.69
841.78	-20.02
842.08	1.61
842.38	-4.20
842.68	-8.39
842.98	10.01
843.28	11.94
843.58	4.20
843.88	3.55
844.18	6.13
844.48	17.11
844.78	30.67
845.08	22.92
845.38	30.99
845.68	33.57
845.98	27.12
846.28	-0.97
846.58	-11.62
846.88	-28.73
847.18	-49.07
847.48	-58.11
847.78	-64.89
848.07	-63.92
848.37	-45.84
848.67	-42.94
848.97	-26.80
849.27	-3.55
849.57	-2.91
849.87	3.23
850.17	1.94
850.47	3.55
850.77	3.55
851.07	-15.50
851.36	-41.97
851.66	-56.50
851.96	-60.69
852.26	-54.56
852.56	-41.65
852.86	-37.77
853.16	-25.50
853.45	-8.39
853.75	12.27
854.05	13.24
854.35	3.55
854.65	-10.98
854.95	-29.38
855.24	-16.79
855.54	-3.55
855.84	-14.85
856.14	-9.68
856.44	0.32
856.73	10.98
857.03	33.25
857.33	32.93
857.63	23.57
857.93	31.64
858.22	26.15
858.52	28.09
858.82	20.98
859.12	27.12
859.41	32.93
859.71	41.32
860.01	34.54
860.30	42.94
860.60	42.61
860.90	37.13
861.20	22.92
861.49	7.75
861.79	-3.87
862.09	19.05
862.38	17.76
862.68	19.69
862.98	35.51
863.27	41.32
863.57	57.14
863.87	41.65
864.16	13.56
864.46	29.38
864.76	28.41
865.05	21.95
865.35	10.33
865.65	-5.17
865.94	14.53
866.24	16.14
866.54	-2.58
866.83	-7.75
867.13	2.26
867.42	27.76
867.72	21.31
868.02	13.24
868.31	16.79
868.61	13.24
868.90	10.01
869.20	21.63
869.49	7.10
869.79	36.16
870.08	40.03
870.38	40.03
870.68	41.00
870.97	48.75
871.27	19.05
871.56	-7.75
871.86	-19.69
872.15	-11.30
872.45	-7.75
872.74	-7.75
873.04	-10.98
873.33	-8.07
873.63	2.58
873.92	-19.37
874.22	-30.02
874.51	-24.86
874.81	-15.17
875.10	-18.72
875.40	-17.76
875.69	9.68
875.98	33.90
876.28	43.58
876.57	49.39
876.87	41.32
877.16	30.99
877.46	36.48
877.75	30.02
878.04	24.54
878.34	12.59
878.63	3.87
878.93	3.55
879.22	-0.97
879.51	-6.13
879.81	-18.08
880.10	-17.76
880.40	-28.73
880.69	-43.58
880.98	-48.42
881.28	-25.18
881.57	-17.43
881.86	-13.88
882.16	-15.82
882.45	5.17
882.74	23.57
883.04	31.96
883.33	27.44
883.62	16.46
883.92	6.78
884.21	15.82
884.50	-18.08
>>>>>End Processed Spectral Data<<<<<
