SpectraSuite Data File
++++++++++++++++++++++++++++++++++++
Date: Fri Feb 20 12:08:09 EST 2015
User: Administrator
Dark Spectrum Present: Yes
Reference Spectrum Present: No
Number of Sampled Component Spectra: 1
Spectrometers: SB2+H01071
Integration Time (usec): 5000000 (SB2+H01071)
Spectra Averaged: 1 (SB2+H01071)
Boxcar Smoothing: 3 (SB2+H01071)
Correct for Electrical Dark: No (SB2+H01071)
Strobe/Lamp Enabled: Yes (SB2+H01071)
Correct for Detector Non-linearity: No (SB2+H01071)
Correct for Stray Light: No (SB2+H01071)
Number of Pixels in Processed Spectrum: 2048
>>>>>Begin Processed Spectral Data<<<<<
191.06	-20.34
191.43	-20.34
191.81	-20.34
192.19	-15.82
192.56	-14.53
192.94	-21.63
193.31	-32.28
193.69	-42.94
194.07	-42.61
194.44	-36.16
194.82	-23.57
195.19	-26.47
195.57	-20.02
195.95	-1.61
196.32	-2.91
196.70	-12.27
197.07	-21.31
197.45	-40.68
197.83	-40.68
198.20	-39.39
198.58	-41.32
198.95	-30.02
199.33	-17.76
199.70	-8.07
200.08	-8.39
200.46	7.75
200.83	11.94
201.21	23.57
201.58	13.24
201.96	20.34
202.33	31.31
202.71	39.71
203.09	22.92
203.46	11.94
203.84	4.20
204.21	-1.29
204.59	-0.65
204.96	-2.26
205.34	-2.26
205.71	5.49
206.09	16.14
206.46	-1.94
206.84	13.88
207.21	1.94
207.59	4.20
207.96	-4.20
208.34	-1.94
208.71	1.94
209.09	8.07
209.46	-4.84
209.84	17.76
210.21	2.26
210.59	15.82
210.96	13.56
211.34	2.58
211.71	10.33
212.09	17.11
212.46	-1.94
212.84	-8.07
213.21	-31.31
213.59	-25.18
213.96	-11.94
214.34	-21.63
214.71	-21.63
215.08	-10.33
215.46	10.65
215.83	32.28
216.21	13.24
216.58	-1.29
216.96	9.04
217.33	11.30
217.70	-6.13
218.08	-23.24
218.45	-44.23
218.83	-28.73
219.20	-33.57
219.58	-46.17
219.95	-48.10
220.32	-24.21
220.70	-13.88
221.07	11.62
221.45	0.32
221.82	9.36
222.19	19.69
222.57	15.82
222.94	-1.61
223.32	-13.24
223.69	-20.66
224.06	-48.42
224.44	-49.72
224.81	-49.39
225.18	-48.42
225.56	-37.13
225.93	-23.57
226.31	-27.76
226.68	-2.58
227.05	-5.17
227.43	-10.01
227.80	-0.32
228.17	-10.98
228.55	-19.69
228.92	-24.54
229.29	-13.56
229.67	-3.23
230.04	-7.10
230.41	-19.05
230.79	-17.43
231.16	-10.33
231.53	-10.01
231.91	-25.83
232.28	-29.05
232.65	-20.34
233.03	-9.36
233.40	5.17
233.77	-8.07
234.15	7.43
234.52	27.44
234.89	24.86
235.26	13.56
235.64	4.84
236.01	-7.75
236.38	8.72
236.76	2.91
237.13	-26.47
237.50	-24.21
237.87	-35.19
238.25	-20.66
238.62	-7.75
238.99	-9.04
239.36	-1.94
239.74	19.37
240.11	9.36
240.48	30.35
240.85	28.73
241.23	19.69
241.60	4.52
241.97	4.52
242.34	-1.61
242.72	4.52
243.09	0.32
243.46	-18.40
243.83	-30.67
244.20	-27.76
244.58	-39.06
244.95	-31.64
245.32	-34.54
245.69	-42.94
246.07	-37.77
246.44	-28.73
246.81	-23.24
247.18	-24.21
247.55	-16.79
247.92	3.87
248.30	23.24
248.67	30.02
249.04	16.79
249.41	28.73
249.78	32.61
250.16	42.61
250.53	35.19
250.90	24.21
251.27	24.86
251.64	30.67
252.01	17.76
252.39	19.05
252.76	7.43
253.13	-17.76
253.50	-30.35
253.87	-30.35
254.24	-19.05
254.61	-20.66
254.98	-29.05
255.36	-34.22
255.73	-21.95
256.10	-9.36
256.47	-14.85
256.84	-19.05
257.21	-18.08
257.58	-6.13
257.95	-3.55
258.33	10.98
258.70	7.75
259.07	9.04
259.44	8.72
259.81	10.65
260.18	1.94
260.55	-4.84
260.92	-26.47
261.29	-17.76
261.66	-8.07
262.03	-6.13
262.40	-4.52
262.77	9.36
263.15	10.65
263.52	20.34
263.89	9.68
264.26	-7.10
264.63	-14.53
265.00	-11.62
265.37	-12.27
265.74	-12.91
266.11	-3.55
266.48	12.59
266.85	34.22
267.22	33.57
267.59	31.31
267.96	24.54
268.33	33.25
268.70	15.50
269.07	-2.26
269.44	1.94
269.81	6.78
270.18	8.39
270.55	-2.91
270.92	-20.34
271.29	7.10
271.66	17.11
272.03	22.60
272.40	21.63
272.77	4.84
273.14	22.28
273.51	48.75
273.88	25.50
274.25	25.83
274.62	-3.87
274.99	-1.61
275.36	25.50
275.73	13.24
276.10	8.72
276.47	26.15
276.84	37.77
277.21	45.52
277.58	37.45
277.94	30.35
278.31	37.13
278.68	35.51
279.05	14.53
279.42	8.07
279.79	9.36
280.16	23.24
280.53	15.50
280.90	-3.87
281.27	-13.24
281.64	14.53
282.01	10.65
282.37	16.79
282.74	18.72
283.11	20.34
283.48	20.02
283.85	25.50
284.22	6.78
284.59	-2.58
284.96	-14.53
285.33	-20.34
285.69	-22.28
286.06	-22.60
286.43	-31.96
286.80	-10.33
287.17	-2.91
287.54	15.82
287.91	16.46
288.27	27.44
288.64	30.35
289.01	54.88
289.38	43.26
289.75	51.65
290.12	48.10
290.48	41.65
290.85	30.35
291.22	32.61
291.59	5.17
291.96	1.29
292.33	-6.13
292.69	-17.76
293.06	-6.46
293.43	-0.00
293.80	10.01
294.17	23.24
294.53	11.30
294.90	20.34
295.27	24.21
295.64	37.77
296.01	44.55
296.37	51.01
296.74	54.56
297.11	58.11
297.48	59.72
297.84	45.52
298.21	27.44
298.58	18.08
298.95	1.61
299.31	-12.27
299.68	-4.20
300.05	-26.80
300.42	-11.62
300.78	-22.28
301.15	-13.88
301.52	-14.20
301.89	-5.81
302.25	-5.81
302.62	13.56
302.99	15.17
303.35	9.04
303.72	-10.01
304.09	-18.08
304.46	-16.46
304.82	-13.56
305.19	-19.05
305.56	-26.15
305.92	-11.30
306.29	9.36
306.66	21.31
307.02	10.01
307.39	4.20
307.76	15.17
308.12	22.92
308.49	19.37
308.86	4.84
309.23	21.63
309.59	38.74
309.96	31.31
310.32	19.37
310.69	13.24
311.06	20.34
311.42	25.18
311.79	5.81
312.16	-7.75
312.52	8.39
312.89	5.81
313.26	0.00
313.62	-10.33
313.99	-17.76
314.35	-17.43
314.72	-19.37
315.09	-26.80
315.45	-13.24
315.82	-16.46
316.19	-6.78
316.55	-8.07
316.92	0.00
317.28	1.61
317.65	-11.62
318.02	-24.21
318.38	-12.27
318.75	-19.37
319.11	-23.57
319.48	-20.66
319.84	-15.82
320.21	-24.86
320.58	-12.27
320.94	1.61
321.31	-2.58
321.67	10.33
322.04	7.43
322.40	-2.58
322.77	18.08
323.13	11.62
323.50	-1.29
323.86	7.43
324.23	18.40
324.60	10.01
324.96	20.66
325.33	5.81
325.69	-0.65
326.06	-3.55
326.42	-14.53
326.79	-38.42
327.15	-38.74
327.52	-39.39
327.88	-15.50
328.25	-6.13
328.61	-0.65
328.98	12.59
329.34	18.40
329.71	16.14
330.07	6.13
330.44	-8.07
330.80	-21.31
331.16	-28.73
331.53	-36.16
331.89	-24.54
332.26	3.23
332.62	6.46
332.99	21.95
333.35	39.39
333.72	45.20
334.08	39.06
334.45	22.92
334.81	11.94
335.17	18.08
335.54	22.60
335.90	3.23
336.27	-1.94
336.63	9.68
337.00	21.95
337.36	18.40
337.72	4.84
338.09	-26.80
338.45	-8.72
338.82	-3.23
339.18	-4.84
339.54	-0.32
339.91	6.78
340.27	24.86
340.63	27.76
341.00	16.79
341.36	16.14
341.73	-11.62
342.09	-21.63
342.45	-23.57
342.82	-21.31
343.18	-9.36
343.54	9.68
343.91	8.39
344.27	42.61
344.63	41.97
345.00	46.49
345.36	41.65
345.72	41.65
346.09	13.24
346.45	21.95
346.81	5.17
347.18	17.11
347.54	2.26
347.90	-1.61
348.27	3.23
348.63	-3.87
348.99	-28.73
349.36	-9.04
349.72	-26.15
350.08	-33.57
350.45	-42.29
350.81	-42.94
351.17	-26.80
351.53	-14.85
351.90	-19.69
352.26	-10.98
352.62	-11.30
352.98	-5.49
353.35	-13.56
353.71	-22.92
354.07	-23.24
354.44	-43.58
354.80	-41.32
355.16	-35.19
355.52	-28.41
355.88	-18.72
356.25	-12.59
356.61	-7.75
356.97	-8.72
357.33	-19.05
357.70	-0.97
358.06	-8.39
358.42	-28.73
358.78	-40.68
359.15	-45.20
359.51	-26.15
359.87	-44.55
360.23	-61.02
360.59	-62.31
360.95	-43.91
361.32	-28.09
361.68	-26.47
362.04	-45.84
362.40	-15.82
362.76	-18.08
363.13	-12.27
363.49	-7.75
363.85	-3.55
364.21	-3.87
364.57	13.88
364.93	10.01
365.30	22.60
365.66	14.85
366.02	14.20
366.38	12.59
366.74	28.41
367.10	26.80
367.46	23.57
367.83	23.57
368.19	36.80
368.55	30.99
368.91	26.15
369.27	9.68
369.63	13.88
369.99	4.20
370.35	0.32
370.71	9.36
371.08	25.18
371.44	20.34
371.80	33.57
372.16	41.32
372.52	47.46
372.88	56.17
373.24	37.13
373.60	26.80
373.96	30.67
374.32	21.95
374.68	20.98
375.04	28.73
375.40	18.72
375.76	36.16
376.13	31.96
376.49	44.55
376.85	45.52
377.21	35.51
377.57	32.61
377.93	22.92
378.29	12.59
378.65	23.57
379.01	25.83
379.37	28.73
379.73	19.37
380.09	35.51
380.45	48.75
380.81	47.13
381.17	26.80
381.53	12.59
381.89	14.53
382.25	18.08
382.61	8.39
382.97	6.13
383.33	-6.78
383.69	4.84
384.05	19.69
384.41	12.91
384.77	12.59
385.13	9.04
385.49	-8.72
385.85	5.81
386.20	8.39
386.56	-29.38
386.92	-34.54
387.28	-37.77
387.64	-42.29
388.00	-43.26
388.36	-52.94
388.72	-41.00
389.08	-23.57
389.44	-19.05
389.80	-9.68
390.16	-7.43
390.52	0.32
390.88	0.32
391.23	-14.85
391.59	-0.97
391.95	0.65
392.31	-10.98
392.67	-38.09
393.03	-20.02
393.39	-33.57
393.75	-19.37
394.11	-24.86
394.46	-17.43
394.82	-5.81
395.18	19.69
395.54	11.94
395.90	35.83
396.26	13.88
396.62	1.61
396.97	-7.43
397.33	-2.26
397.69	-9.36
398.05	-25.50
398.41	-25.50
398.77	-35.83
399.12	-19.69
399.48	-19.69
399.84	-27.76
400.20	-13.88
400.56	-5.17
400.91	-19.05
401.27	-15.82
401.63	-19.69
401.99	-21.63
402.35	-20.66
402.70	-30.02
403.06	-26.15
403.42	-20.02
403.78	-1.29
404.14	-14.20
404.49	-10.01
404.85	-10.98
405.21	-3.87
405.57	1.94
405.92	6.46
406.28	-1.61
406.64	4.20
407.00	6.78
407.35	3.23
407.71	-7.10
408.07	-18.08
408.43	-34.22
408.78	-39.06
409.14	-21.63
409.50	-20.34
409.85	-15.50
410.21	-8.72
410.57	-2.26
410.93	17.76
411.28	23.24
411.64	17.43
412.00	10.01
412.35	18.08
412.71	22.28
413.07	18.40
413.42	19.69
413.78	21.63
414.14	12.59
414.49	6.78
414.85	1.94
415.21	-6.46
415.56	4.52
415.92	14.53
416.28	17.11
416.63	14.85
416.99	26.80
417.35	18.72
417.70	15.17
418.06	-2.58
418.42	-3.23
418.77	-11.30
419.13	-0.97
419.48	-13.88
419.84	-14.85
420.20	-3.23
420.55	7.75
420.91	-10.65
421.27	13.24
421.62	31.96
421.98	44.23
422.33	51.65
422.69	58.76
423.05	61.02
423.40	66.83
423.76	58.76
424.11	35.19
424.47	36.16
424.82	47.46
425.18	32.93
425.54	24.54
425.89	20.34
426.25	8.07
426.60	0.00
426.96	-12.27
427.31	-27.76
427.67	-17.43
428.02	-11.30
428.38	-7.10
428.73	-14.20
429.09	-13.24
429.44	-19.37
429.80	-6.46
430.15	-0.97
430.51	4.20
430.86	10.65
431.22	13.56
431.57	18.08
431.93	31.31
432.28	22.28
432.64	4.20
432.99	9.04
433.35	2.58
433.70	-3.23
434.06	-9.36
434.41	-17.76
434.77	-7.43
435.12	9.68
435.48	1.29
435.83	7.10
436.19	20.02
436.54	21.95
436.89	26.15
437.25	13.24
437.60	-5.49
437.96	-5.49
438.31	-5.81
438.67	-13.88
439.02	-10.33
439.37	-13.88
439.73	-15.17
440.08	7.10
440.44	2.58
440.79	-0.32
441.15	-4.52
441.50	7.43
441.85	-4.84
442.21	8.07
442.56	8.39
442.91	15.17
443.27	9.68
443.62	17.11
443.98	14.20
444.33	19.69
444.68	8.39
445.04	-6.46
445.39	-0.65
445.74	-0.65
446.10	2.58
446.45	-16.46
446.80	7.75
447.16	4.20
447.51	10.01
447.86	6.13
448.22	14.53
448.57	4.52
448.92	11.94
449.28	2.91
449.63	3.87
449.98	-14.20
450.34	-15.82
450.69	-29.05
451.04	-19.05
451.40	-20.66
451.75	-23.89
452.10	-17.76
452.45	-8.07
452.81	-2.91
453.16	-4.20
453.51	-0.97
453.86	19.05
454.22	7.75
454.57	13.88
454.92	16.79
455.27	3.55
455.63	6.46
455.98	15.50
456.33	-13.56
456.68	-2.91
457.04	-4.84
457.39	-11.94
457.74	-0.97
458.09	-0.65
458.45	-0.65
458.80	6.46
459.15	10.65
459.50	-2.91
459.85	-16.79
460.21	-6.13
460.56	-9.36
460.91	-4.52
461.26	6.13
461.61	-7.10
461.97	-10.98
462.32	16.46
462.67	-11.94
463.02	6.13
463.37	-14.85
463.72	-26.47
464.08	-19.37
464.43	-20.02
464.78	-22.60
465.13	-4.52
465.48	-6.13
465.83	-0.97
466.18	19.05
466.54	28.09
466.89	35.83
467.24	27.76
467.59	24.21
467.94	25.83
468.29	20.98
468.64	18.08
468.99	19.05
469.34	12.91
469.70	18.08
470.05	16.46
470.40	-3.23
470.75	-12.27
471.10	-30.67
471.45	-41.32
471.80	-39.71
472.15	-36.80
472.50	-44.55
472.85	-33.57
473.20	-31.96
473.55	-8.07
473.90	-12.59
474.25	10.01
474.61	19.05
474.96	21.31
475.31	16.46
475.66	30.35
476.01	28.09
476.36	44.23
476.71	37.77
477.06	38.74
477.41	56.82
477.76	58.76
478.11	68.76
478.46	68.12
478.81	54.88
479.16	52.94
479.51	42.94
479.86	29.70
480.21	28.73
480.56	9.04
480.91	1.29
481.26	17.76
481.61	16.79
481.96	11.62
482.31	0.32
482.66	3.55
483.00	11.30
483.35	10.65
483.70	-3.55
484.05	-4.52
484.40	-9.04
484.75	1.61
485.10	-0.65
485.45	-7.10
485.80	-28.73
486.15	-23.24
486.50	-30.99
486.85	-29.38
487.20	-33.57
487.55	-47.13
487.89	-48.10
488.24	-21.31
488.59	-6.46
488.94	4.52
489.29	-8.39
489.64	-1.94
489.99	10.98
490.34	25.18
490.68	24.21
491.03	10.65
491.38	7.43
491.73	30.02
492.08	37.45
492.43	38.42
492.78	24.54
493.12	20.66
493.47	12.91
493.82	0.97
494.17	-2.91
494.52	-12.91
494.87	-33.57
495.21	-43.58
495.56	-33.90
495.91	-22.92
496.26	-4.52
496.61	5.49
496.95	4.52
497.30	37.45
497.65	47.13
498.00	39.39
498.35	41.00
498.69	19.37
499.04	-6.13
499.39	-10.65
499.74	-23.57
500.08	-20.34
500.43	-21.63
500.78	-44.23
501.13	-41.97
501.48	-37.77
501.82	-31.31
502.17	-48.75
502.52	-43.26
502.86	-51.65
503.21	-34.54
503.56	-17.11
503.91	-8.72
504.25	-6.78
504.60	12.27
504.95	-0.65
505.30	5.49
505.64	10.01
505.99	3.55
506.34	24.54
506.68	22.92
507.03	16.46
507.38	30.99
507.72	37.13
508.07	22.92
508.42	25.18
508.76	-4.52
509.11	-6.13
509.46	-1.94
509.80	-4.84
510.15	-4.20
510.50	-4.84
510.84	-10.98
511.19	3.23
511.54	5.81
511.88	2.91
512.23	18.72
512.57	21.95
512.92	22.60
513.27	17.76
513.61	24.21
513.96	16.14
514.31	27.12
514.65	5.81
515.00	-17.76
515.34	-17.11
515.69	-15.17
516.03	-24.21
516.38	-28.09
516.73	-42.94
517.07	-42.61
517.42	-31.96
517.76	-15.82
518.11	3.55
518.45	-2.58
518.80	0.32
519.15	15.50
519.49	22.92
519.84	18.08
520.18	0.65
520.53	-29.70
520.87	-36.16
521.22	-42.29
521.56	-47.46
521.91	-54.88
522.25	-42.29
522.60	-36.48
522.94	-13.88
523.29	-13.56
523.63	-0.97
523.98	-8.39
524.32	11.30
524.67	11.30
525.01	13.56
525.36	12.27
525.70	16.14
526.05	4.52
526.39	3.55
526.74	-6.46
527.08	-10.33
527.43	-24.86
527.77	-27.44
528.12	-17.11
528.46	3.87
528.80	13.24
529.15	5.49
529.49	13.24
529.84	19.37
530.18	20.34
530.53	1.94
530.87	5.17
531.21	0.00
531.56	8.72
531.90	-1.29
532.25	-5.81
532.59	-2.58
532.93	17.43
533.28	13.88
533.62	25.50
533.97	9.68
534.31	9.68
534.65	21.63
535.00	16.79
535.34	6.46
535.68	0.00
536.03	-10.98
536.37	0.00
536.71	-3.55
537.06	-10.98
537.40	-15.82
537.74	-16.14
538.09	-22.92
538.43	-23.57
538.77	-31.96
539.12	-18.40
539.46	-15.17
539.80	-10.65
540.15	-13.24
540.49	-1.94
540.83	11.62
541.18	73.28
541.52	70.70
541.86	104.92
542.20	91.68
542.55	96.85
542.89	94.59
543.23	79.09
543.58	25.18
543.92	22.92
544.26	4.20
544.60	17.43
544.95	35.19
545.29	26.47
545.63	33.25
545.97	38.09
546.32	20.66
546.66	14.85
547.00	34.22
547.34	14.20
547.68	27.44
548.03	31.31
548.37	13.56
548.71	36.48
549.05	32.61
549.39	13.24
549.74	11.62
550.08	-8.39
550.42	-23.24
550.76	-10.65
551.10	-26.47
551.45	-21.95
551.79	-27.76
552.13	-28.09
552.47	-16.14
552.81	0.65
553.15	10.33
553.50	14.85
553.84	15.82
554.18	20.02
554.52	35.19
554.86	30.35
555.20	33.25
555.54	20.98
555.88	16.46
556.23	2.91
556.57	17.11
556.91	-5.49
557.25	8.72
557.59	-15.82
557.93	-13.24
558.27	10.01
558.61	18.72
558.95	3.23
559.29	17.76
559.64	-10.98
559.98	-25.83
560.32	-28.09
560.66	-46.81
561.00	-49.72
561.34	-70.38
561.68	-68.44
562.02	-49.39
562.36	-20.34
562.70	-15.50
563.04	-19.69
563.38	-24.54
563.72	-5.17
564.06	1.61
564.40	6.78
564.74	6.46
565.08	3.55
565.42	7.10
565.76	15.17
566.10	23.24
566.44	20.34
566.78	18.40
567.12	20.98
567.46	25.50
567.80	24.54
568.14	19.37
568.48	14.20
568.82	5.49
569.16	-14.85
569.50	-18.72
569.84	-25.83
570.18	1.61
570.52	15.50
570.86	23.24
571.20	11.94
571.54	18.72
571.88	18.08
572.22	26.80
572.55	3.55
572.89	3.87
573.23	7.75
573.57	7.43
573.91	14.20
574.25	14.85
574.59	-3.23
574.93	-5.49
575.27	-10.33
575.61	-25.83
575.94	-9.04
576.28	-3.87
576.62	7.75
576.96	22.28
577.30	22.92
577.64	28.73
577.98	27.76
578.32	27.12
578.65	17.43
578.99	15.17
579.33	18.40
579.67	10.65
580.01	8.39
580.35	9.36
580.68	11.62
581.02	15.82
581.36	9.04
581.70	-13.56
582.04	-2.58
582.37	-7.43
582.71	-6.13
583.05	-1.29
583.39	-11.62
583.73	-27.76
584.06	-13.24
584.40	-14.53
584.74	-20.98
585.08	-35.19
585.41	-40.35
585.75	-19.69
586.09	-7.75
586.43	-16.79
586.76	-16.79
587.10	-9.68
587.44	11.94
587.78	0.97
588.11	-14.20
588.45	-27.76
588.79	-32.28
589.13	-35.19
589.46	-42.29
589.80	-56.82
590.14	-56.82
590.47	-59.72
590.81	-59.40
591.15	-52.62
591.48	-41.65
591.82	-44.23
592.16	-41.65
592.50	-26.15
592.83	-23.24
593.17	-3.55
593.51	4.84
593.84	-3.87
594.18	9.36
594.51	33.90
594.85	34.22
595.19	36.80
595.52	37.77
595.86	28.09
596.20	33.25
596.53	25.18
596.87	19.37
597.21	-2.58
597.54	4.84
597.88	1.61
598.21	19.05
598.55	18.40
598.89	18.08
599.22	9.04
599.56	24.54
599.89	22.28
600.23	16.79
600.57	-4.20
600.90	-15.82
601.24	-21.63
601.57	-34.54
601.91	-36.80
602.24	-47.13
602.58	-40.68
602.91	-34.22
603.25	-25.50
603.58	-13.88
603.92	-12.91
604.26	-0.65
604.59	4.52
604.93	-3.23
605.26	5.17
605.60	3.87
605.93	2.58
606.27	0.65
606.60	-8.07
606.94	3.87
607.27	3.55
607.61	8.07
607.94	7.10
608.28	10.98
608.61	10.33
608.95	5.49
609.28	-0.65
609.61	6.78
609.95	8.07
610.28	21.63
610.62	9.36
610.95	16.46
611.29	14.20
611.62	-1.61
611.96	-4.84
612.29	-6.78
612.62	-16.79
612.96	-17.43
613.29	-4.84
613.63	0.00
613.96	20.98
614.29	26.47
614.63	16.14
614.96	15.17
615.30	25.50
615.63	23.89
615.96	20.34
616.30	12.59
616.63	12.91
616.97	21.95
617.30	26.80
617.63	28.41
617.97	14.20
618.30	3.87
618.63	5.81
618.97	8.72
619.30	-3.87
619.63	-12.91
619.97	-15.82
620.30	-5.81
620.63	-6.46
620.97	-9.04
621.30	-12.91
621.63	-13.24
621.97	7.10
622.30	10.01
622.63	15.82
622.96	30.35
623.30	36.80
623.63	46.49
623.96	63.28
624.30	57.14
624.63	58.76
624.96	47.13
625.29	30.02
625.63	10.01
625.96	0.32
626.29	-13.24
626.62	-26.47
626.96	-33.57
627.29	-28.41
627.62	-28.41
627.95	-9.04
628.28	-13.56
628.62	-12.27
628.95	-29.05
629.28	-33.90
629.61	-15.50
629.95	-5.81
630.28	-4.84
630.61	4.20
630.94	20.66
631.27	30.35
631.60	26.47
631.94	7.75
632.27	27.44
632.60	31.64
632.93	26.15
633.26	11.30
633.59	20.66
633.93	41.00
634.26	39.06
634.59	22.60
634.92	19.05
635.25	21.63
635.58	16.79
635.91	12.59
636.24	2.26
636.58	11.62
636.91	10.98
637.24	9.36
637.57	4.84
637.90	24.21
638.23	27.44
638.56	22.28
638.89	17.43
639.22	13.24
639.55	3.87
639.88	6.46
640.22	-17.76
640.55	-23.89
640.88	-17.76
641.21	-27.12
641.54	-21.95
641.87	-13.88
642.20	-26.47
642.53	-19.69
642.86	-13.24
643.19	-1.29
643.52	-1.94
643.85	-9.36
644.18	-1.29
644.51	-4.20
644.84	4.52
645.17	2.26
645.50	-41.00
645.83	-29.38
646.16	-14.85
646.49	-37.13
646.82	-11.30
647.15	-21.31
647.48	-21.63
647.81	7.10
648.14	-1.29
648.47	-10.65
648.80	-1.61
649.13	-10.01
649.46	5.49
649.79	9.36
650.11	4.20
650.44	19.05
650.77	11.30
651.10	12.91
651.43	19.05
651.76	5.81
652.09	3.87
652.42	16.46
652.75	6.13
653.08	15.50
653.41	20.34
653.73	11.30
654.06	22.92
654.39	24.86
654.72	27.12
655.05	29.38
655.38	30.02
655.71	18.72
656.04	24.21
656.36	24.86
656.69	9.04
657.02	-0.32
657.35	-10.65
657.68	-5.17
658.01	-7.75
658.33	-12.91
658.66	-22.28
658.99	-13.56
659.32	-13.88
659.65	8.07
659.97	-0.65
660.30	4.52
660.63	-2.91
660.96	-7.43
661.29	-4.52
661.61	-17.11
661.94	-47.78
662.27	-55.85
662.60	-58.43
662.92	-61.98
663.25	-56.82
663.58	-47.13
663.91	-40.03
664.23	-23.89
664.56	-2.26
664.89	1.94
665.22	-0.97
665.54	2.91
665.87	-9.68
666.20	-2.58
666.53	-12.27
666.85	-20.66
667.18	-10.65
667.51	-1.61
667.83	-8.07
668.16	-2.26
668.49	-15.50
668.81	-9.36
669.14	-9.36
669.47	-6.78
669.79	-4.84
670.12	-6.78
670.45	-8.07
670.77	8.72
671.10	9.68
671.43	12.59
671.75	8.72
672.08	2.58
672.41	-2.58
672.73	1.29
673.06	-11.62
673.39	-8.72
673.71	-22.28
674.04	-30.67
674.36	-16.14
674.69	6.78
675.02	12.91
675.34	10.01
675.67	0.32
675.99	23.57
676.32	35.19
676.64	19.05
676.97	2.26
677.30	0.65
677.62	15.82
677.95	35.19
678.27	16.79
678.60	10.33
678.92	21.31
679.25	22.28
679.57	6.78
679.90	-3.55
680.22	-16.14
680.55	-3.23
680.88	-3.87
681.20	-20.34
681.53	-22.92
681.85	-5.17
682.18	-4.84
682.50	-3.23
682.83	-13.88
683.15	-14.20
683.47	-3.87
683.80	-10.98
684.12	-22.60
684.45	-24.54
684.77	-21.31
685.10	-31.96
685.42	-39.06
685.75	-25.18
686.07	-27.76
686.40	-35.51
686.72	-38.09
687.04	-49.07
687.37	-36.80
687.69	-9.36
688.02	-25.18
688.34	-5.49
688.67	-1.61
688.99	6.78
689.31	9.68
689.64	17.76
689.96	-3.55
690.28	18.72
690.61	19.69
690.93	43.91
691.26	49.72
691.58	48.42
691.90	26.15
692.23	22.92
692.55	5.81
692.87	6.46
693.20	-8.39
693.52	-20.98
693.84	-19.69
694.17	-4.84
694.49	-6.46
694.81	-2.91
695.14	-23.57
695.46	-17.76
695.78	-10.98
696.11	-15.82
696.43	-11.94
696.75	-4.84
697.08	-12.59
697.40	-9.04
697.72	-10.65
698.04	-6.78
698.37	8.39
698.69	0.97
699.01	-3.87
699.33	8.07
699.66	19.69
699.98	10.65
700.30	6.78
700.62	8.39
700.95	12.59
701.27	19.05
701.59	8.39
701.91	-3.55
702.24	-12.27
702.56	-8.72
702.88	-15.17
703.20	-10.98
703.52	-20.02
703.85	-26.15
704.17	0.65
704.49	6.78
704.81	3.55
705.13	2.91
705.45	5.17
705.78	-1.94
706.10	-7.75
706.42	-41.00
706.74	-20.66
707.06	-20.66
707.38	-16.46
707.71	-26.15
708.03	-19.05
708.35	-8.39
708.67	7.75
708.99	-20.34
709.31	-33.57
709.63	-38.42
709.95	-27.44
710.27	-32.93
710.60	-27.12
710.92	-29.38
711.24	-16.46
711.56	-14.20
711.88	-21.63
712.20	-36.16
712.52	-20.66
712.84	-26.80
713.16	-21.95
713.48	-19.37
713.80	-18.40
714.12	-23.24
714.44	-6.46
714.76	-5.17
715.08	0.32
715.40	8.39
715.72	12.91
716.04	15.82
716.36	32.61
716.68	34.22
717.00	39.39
717.32	39.71
717.64	42.94
717.96	36.80
718.28	49.07
718.60	51.33
718.92	36.16
719.24	18.08
719.56	24.86
719.88	-0.97
720.20	-8.72
720.52	-8.07
720.84	-32.93
721.16	-25.18
721.48	-11.62
721.80	-19.37
722.12	-3.55
722.44	8.72
722.76	2.58
723.08	0.65
723.40	-1.94
723.72	-3.87
724.03	1.29
724.35	-3.87
724.67	-11.94
724.99	-10.01
725.31	17.11
725.63	26.47
725.95	6.46
726.27	-11.62
726.58	-12.59
726.90	3.55
727.22	15.50
727.54	-1.61
727.86	-7.75
728.18	10.01
728.50	24.54
728.81	41.65
729.13	30.35
729.45	14.85
729.77	22.60
730.09	22.60
730.40	5.49
730.72	8.72
731.04	-9.68
731.36	0.00
731.68	10.01
731.99	13.24
732.31	-5.49
732.63	6.78
732.95	4.20
733.27	15.50
733.58	5.81
733.90	2.26
734.22	10.98
734.54	40.03
734.85	33.90
735.17	33.90
735.49	34.87
735.80	38.74
736.12	37.13
736.44	19.37
736.76	-3.87
737.07	13.56
737.39	8.39
737.71	1.29
738.02	-6.78
738.34	-23.24
738.66	-22.28
738.97	-19.37
739.29	-39.39
739.61	-38.09
739.93	-34.22
740.24	-43.58
740.56	-25.83
740.87	-19.69
741.19	-12.27
741.51	-2.58
741.82	4.84
742.14	15.17
742.46	30.35
742.77	15.82
743.09	26.47
743.41	1.94
743.72	3.87
744.04	-2.26
744.35	-11.94
744.67	-18.72
744.99	-11.94
745.30	-30.99
745.62	3.87
745.93	1.94
746.25	-7.43
746.56	0.97
746.88	0.00
747.20	6.78
747.51	13.24
747.83	13.56
748.14	14.20
748.46	11.30
748.77	-5.49
749.09	5.81
749.40	3.87
749.72	2.91
750.03	6.46
750.35	5.49
750.66	23.24
750.98	46.49
751.29	52.94
751.61	49.72
751.92	57.14
752.24	32.28
752.55	37.45
752.87	23.24
753.18	-7.10
753.50	-21.31
753.81	-11.30
754.13	-22.92
754.44	-12.27
754.76	-24.21
755.07	-10.65
755.38	4.52
755.70	-12.27
756.01	-38.09
756.33	-32.28
756.64	-40.03
756.95	-34.54
757.27	-36.16
757.58	-34.87
757.90	8.07
758.21	23.57
758.52	25.83
758.84	33.25
759.15	37.45
759.47	39.71
759.78	43.91
760.09	18.40
760.41	28.73
760.72	46.81
761.03	40.68
761.35	18.40
761.66	5.49
761.97	-6.13
762.29	-9.68
762.60	-19.05
762.91	-48.75
763.23	-42.61
763.54	-18.08
763.85	-6.46
764.17	-6.46
764.48	-3.55
764.79	-10.98
765.10	-0.97
765.42	1.29
765.73	5.81
766.04	8.39
766.36	7.10
766.67	-12.27
766.98	-0.00
767.29	10.98
767.61	5.81
767.92	-5.81
768.23	-20.66
768.54	-23.57
768.86	-4.52
769.17	-2.91
769.48	-14.53
769.79	-8.72
770.10	-6.78
770.42	0.00
770.73	5.49
771.04	2.58
771.35	-8.39
771.66	-7.43
771.98	-13.24
772.29	-18.40
772.60	-25.50
772.91	-26.47
773.22	-18.72
773.53	-18.40
773.85	-23.24
774.16	-35.83
774.47	-31.96
774.78	-26.80
775.09	-24.54
775.40	-39.39
775.71	-28.09
776.02	-25.50
776.34	-4.52
776.65	5.81
776.96	23.57
777.27	35.19
777.58	52.62
777.89	47.13
778.20	33.90
778.51	33.57
778.82	24.86
779.13	6.13
779.44	8.39
779.75	0.65
780.06	-0.32
780.38	22.92
780.69	20.66
781.00	14.20
781.31	19.05
781.62	7.43
781.93	11.62
782.24	16.14
782.55	8.39
782.86	14.85
783.17	25.18
783.48	13.56
783.79	11.62
784.10	8.07
784.41	3.23
784.72	2.26
785.03	-8.39
785.34	-10.01
785.65	2.58
785.96	-6.13
786.27	-7.75
786.57	-20.98
786.88	-15.82
787.19	-21.31
787.50	-32.28
787.81	-35.19
788.12	-32.93
788.43	-26.15
788.74	-6.46
789.05	-9.68
789.36	-2.91
789.67	-0.97
789.98	12.59
790.29	11.94
790.59	5.17
790.90	-2.58
791.21	-2.91
791.52	13.88
791.83	31.64
792.14	28.73
792.45	41.00
792.75	43.91
793.06	42.61
793.37	44.55
793.68	16.46
793.99	5.49
794.30	2.91
794.60	7.10
794.91	15.82
795.22	33.90
795.53	27.12
795.84	47.13
796.15	52.30
796.45	45.52
796.76	42.61
797.07	31.31
797.38	-5.17
797.68	-6.78
797.99	-11.30
798.30	11.62
798.61	10.01
798.91	-4.20
799.22	9.36
799.53	50.68
799.84	59.40
800.14	51.65
800.45	28.73
800.76	34.87
801.07	41.65
801.37	24.86
801.68	2.26
801.99	0.00
802.29	21.63
802.60	2.58
802.91	4.20
803.22	-10.65
803.52	2.26
803.83	4.84
804.14	3.23
804.44	-17.43
804.75	-1.94
805.06	-15.82
805.36	-13.24
805.67	-28.73
805.97	-43.91
806.28	-36.16
806.59	-22.60
806.89	-26.47
807.20	-33.25
807.51	-9.68
807.81	-6.78
808.12	1.29
808.42	-15.82
808.73	-35.51
809.04	-22.92
809.34	-5.49
809.65	-9.36
809.95	-4.84
810.26	16.14
810.56	21.31
810.87	26.15
811.18	12.91
811.48	21.31
811.79	6.13
812.09	13.56
812.40	-4.84
812.70	-7.43
813.01	-6.13
813.31	-10.98
813.62	-14.85
813.92	2.91
814.23	-16.46
814.53	-21.63
814.84	-5.49
815.14	-10.65
815.45	-15.17
815.75	-30.35
816.06	-24.21
816.36	-9.68
816.67	4.52
816.97	-1.29
817.28	3.87
817.58	14.53
817.89	16.79
818.19	7.43
818.49	-10.98
818.80	-6.78
819.10	-17.11
819.41	-13.56
819.71	-16.79
820.01	-15.50
820.32	-32.28
820.62	-26.15
820.93	-34.22
821.23	-22.28
821.53	-19.69
821.84	-6.13
822.14	-4.20
822.45	-4.20
822.75	6.78
823.05	9.04
823.36	22.60
823.66	33.57
823.96	15.82
824.27	15.17
824.57	35.19
824.87	24.21
825.18	26.47
825.48	4.20
825.78	4.20
826.09	6.46
826.39	21.31
826.69	11.30
827.00	21.95
827.30	33.25
827.60	38.42
827.90	32.93
828.21	61.34
828.51	57.79
828.81	58.76
829.11	69.09
829.42	29.38
829.72	35.51
830.02	22.60
830.32	13.24
830.63	13.88
830.93	12.27
831.23	-1.29
831.53	20.66
831.84	12.59
832.14	14.20
832.44	13.56
832.74	-2.26
833.04	2.91
833.35	2.58
833.65	10.33
833.95	15.50
834.25	17.11
834.55	5.81
834.85	20.34
835.16	29.05
835.46	22.92
835.76	18.08
836.06	26.15
836.36	33.25
836.66	38.42
836.96	24.86
837.26	8.39
837.57	12.27
837.87	5.17
838.17	-8.72
838.47	-15.82
838.77	-24.86
839.07	-28.09
839.37	-24.86
839.67	-23.24
839.97	-20.34
840.27	-32.61
840.57	-33.57
840.88	-30.35
841.18	-16.14
841.48	-18.40
841.78	-18.72
842.08	-18.72
842.38	-3.87
842.68	5.49
842.98	16.14
843.28	7.43
843.58	13.56
843.88	20.34
844.18	16.46
844.48	15.82
844.78	12.59
845.08	18.72
845.38	27.76
845.68	22.28
845.98	15.50
846.28	9.04
846.58	3.55
846.88	-5.49
847.18	-13.56
847.48	-30.35
847.78	-31.31
848.07	-36.48
848.37	-35.51
848.67	-22.92
848.97	-14.20
849.27	-15.17
849.57	-2.91
849.87	-5.17
850.17	0.65
850.47	11.62
850.77	-2.26
851.07	-18.08
851.36	-26.80
851.66	-37.77
851.96	-38.42
852.26	-37.45
852.56	-41.00
852.86	-39.71
853.16	-38.74
853.45	-29.70
853.75	-20.98
854.05	-19.69
854.35	-18.72
854.65	-16.46
854.95	-19.37
855.24	3.23
855.54	9.04
855.84	17.43
856.14	22.28
856.44	33.57
856.73	48.10
857.03	66.83
857.33	70.05
857.63	58.11
857.93	50.36
858.22	47.13
858.52	41.97
858.82	25.83
859.12	11.62
859.41	2.58
859.71	14.85
860.01	11.94
860.30	10.33
860.60	-4.84
860.90	-0.97
861.20	-12.91
861.49	-20.34
861.79	-32.28
862.09	-34.22
862.38	-28.09
862.68	-31.64
862.98	-15.50
863.27	-1.61
863.57	-1.94
863.87	3.55
864.16	5.17
864.46	1.61
864.76	17.43
865.05	-4.52
865.35	-6.78
865.65	-5.81
865.94	-12.91
866.24	-17.11
866.54	-13.88
866.83	-15.17
867.13	1.94
867.42	6.78
867.72	3.55
868.02	-12.91
868.31	-11.62
868.61	-22.60
868.90	-26.80
869.20	-20.66
869.49	-20.66
869.79	-11.94
870.08	10.98
870.38	19.37
870.68	30.67
870.97	24.54
871.27	10.65
871.56	-10.98
871.86	1.94
872.15	-4.52
872.45	-6.46
872.74	-4.52
873.04	2.91
873.33	-0.65
873.63	15.50
873.92	-7.10
874.22	-11.30
874.51	-5.81
874.81	-15.82
875.10	-19.05
875.40	-26.80
875.69	-14.85
875.98	-6.78
876.28	-6.78
876.57	-19.69
876.87	-21.63
877.16	-26.80
877.46	-18.72
877.75	-22.60
878.04	-21.95
878.34	-17.76
878.63	-19.37
878.93	-24.54
879.22	-24.86
879.51	-27.44
879.81	-27.12
880.10	-39.39
880.40	-63.28
880.69	-52.94
880.98	-54.88
881.28	-51.01
881.57	-46.81
881.86	-65.54
882.16	-59.40
882.45	-22.92
882.74	-22.60
883.04	-0.32
883.33	0.00
883.62	-9.36
883.92	49.72
884.21	-40.68
884.50	-51.98
>>>>>End Processed Spectral Data<<<<<
